File: example/FERRO MOD -0.5 to 1.7 V.csv
July 4, 2025   17:02:03
Cyclic Voltammetry
File: d:\serah 2nd year\04-07-25 scanrate opt ll\-0.5 to 1.7\ferro mod -0.5 to 1.7 v.csv
Data Source:  Experiment
Instrument Model:  CHI760D
Header:
Note:

Init E (V) = -0.2
High E (V) = 0.6
Low E (V) = -0.2
Init P/N = P
Scan Rate (V/s) = 0.05
Segment = 2
Sample Interval (V) = 0.001
Quiet Time (sec) = 2
Sensitivity (A/V) = 1e-4

Results:

Channel 1:
Segment 1:

Segment 2:
Ep = 0.081V
Eh = 0.170V
ip = -2.004e-5A
Ah = -3.801e-5C

Potential/V, Current/A

-0.200, -4.080e-8
-0.194, 1.071e-6
-0.188, 1.239e-6
-0.182, 1.359e-6
-0.176, 1.459e-6
-0.170, 1.542e-6
-0.164, 1.614e-6
-0.158, 1.665e-6
-0.152, 1.710e-6
-0.146, 1.739e-6
-0.140, 1.769e-6
-0.134, 1.804e-6
-0.128, 1.837e-6
-0.122, 1.861e-6
-0.116, 1.893e-6
-0.110, 1.916e-6
-0.104, 1.924e-6
-0.098, 1.935e-6
-0.092, 1.951e-6
-0.086, 1.959e-6
-0.080, 1.976e-6
-0.074, 1.997e-6
-0.068, 2.014e-6
-0.062, 2.030e-6
-0.056, 2.040e-6
-0.050, 2.045e-6
-0.044, 2.059e-6
-0.038, 2.073e-6
-0.032, 2.097e-6
-0.026, 2.116e-6
-0.020, 2.140e-6
-0.014, 2.167e-6
-0.008, 2.184e-6
-0.002, 2.208e-6
0.004, 2.241e-6
0.010, 2.288e-6
0.016, 2.334e-6
0.022, 2.390e-6
0.028, 2.462e-6
0.034, 2.533e-6
0.040, 2.616e-6
0.046, 2.696e-6
0.052, 2.815e-6
0.058, 2.938e-6
0.064, 3.081e-6
0.070, 3.250e-6
0.076, 3.462e-6
0.082, 3.695e-6
0.088, 3.958e-6
0.094, 4.259e-6
0.100, 4.627e-6
0.106, 5.052e-6
0.112, 5.542e-6
0.118, 6.082e-6
0.124, 6.704e-6
0.130, 7.397e-6
0.136, 8.145e-6
0.142, 8.947e-6
0.148, 9.824e-6
0.154, 1.075e-5
0.160, 1.169e-5
0.166, 1.266e-5
0.172, 1.363e-5
0.178, 1.458e-5
0.184, 1.550e-5
0.190, 1.637e-5
0.196, 1.721e-5
0.202, 1.800e-5
0.208, 1.872e-5
0.214, 1.940e-5
0.220, 2.001e-5
0.226, 2.057e-5
0.232, 2.105e-5
0.238, 2.148e-5
0.244, 2.185e-5
0.250, 2.218e-5
0.256, 2.248e-5
0.262, 2.271e-5
0.268, 2.291e-5
0.274, 2.308e-5
0.280, 2.322e-5
0.286, 2.332e-5
0.292, 2.340e-5
0.298, 2.346e-5
0.304, 2.350e-5
0.310, 2.352e-5
0.316, 2.353e-5
0.322, 2.351e-5
0.328, 2.348e-5
0.334, 2.344e-5
0.340, 2.339e-5
0.346, 2.332e-5
0.352, 2.326e-5
0.358, 2.319e-5
0.364, 2.312e-5
0.370, 2.303e-5
0.376, 2.294e-5
0.382, 2.284e-5
0.388, 2.274e-5
0.394, 2.264e-5
0.400, 2.254e-5
0.406, 2.244e-5
0.412, 2.235e-5
0.418, 2.224e-5
0.424, 2.213e-5
0.430, 2.202e-5
0.436, 2.192e-5
0.442, 2.181e-5
0.448, 2.171e-5
0.454, 2.162e-5
0.460, 2.152e-5
0.466, 2.143e-5
0.472, 2.133e-5
0.478, 2.123e-5
0.484, 2.113e-5
0.490, 2.105e-5
0.496, 2.096e-5
0.502, 2.089e-5
0.508, 2.082e-5
0.514, 2.075e-5
0.520, 2.067e-5
0.526, 2.059e-5
0.532, 2.054e-5
0.538, 2.048e-5
0.544, 2.043e-5
0.550, 2.039e-5
0.556, 2.035e-5
0.562, 2.031e-5
0.568, 2.028e-5
0.574, 2.025e-5
0.580, 2.022e-5
0.586, 2.021e-5
0.592, 2.020e-5
0.598, 2.020e-5
0.596, 1.783e-5
0.590, 1.701e-5
0.584, 1.645e-5
0.578, 1.600e-5
0.572, 1.565e-5
0.566, 1.532e-5
0.560, 1.502e-5
0.554, 1.476e-5
0.548, 1.452e-5
0.542, 1.430e-5
0.536, 1.409e-5
0.530, 1.391e-5
0.524, 1.373e-5
0.518, 1.355e-5
0.512, 1.337e-5
0.506, 1.322e-5
0.500, 1.306e-5
0.494, 1.291e-5
0.488, 1.276e-5
0.482, 1.263e-5
0.476, 1.249e-5
0.470, 1.236e-5
0.464, 1.222e-5
0.458, 1.208e-5
0.452, 1.195e-5
0.446, 1.182e-5
0.440, 1.169e-5
0.434, 1.157e-5
0.428, 1.145e-5
0.422, 1.133e-5
0.416, 1.120e-5
0.410, 1.107e-5
0.404, 1.095e-5
0.398, 1.083e-5
0.392, 1.070e-5
0.386, 1.059e-5
0.380, 1.046e-5
0.374, 1.034e-5
0.368, 1.021e-5
0.362, 1.007e-5
0.356, 9.943e-6
0.350, 9.801e-6
0.344, 9.666e-6
0.338, 9.531e-6
0.332, 9.396e-6
0.326, 9.240e-6
0.320, 9.085e-6
0.314, 8.922e-6
0.308, 8.753e-6
0.302, 8.567e-6
0.296, 8.379e-6
0.290, 8.189e-6
0.284, 7.984e-6
0.278, 7.744e-6
0.272, 7.497e-6
0.266, 7.215e-6
0.260, 6.910e-6
0.254, 6.572e-6
0.248, 6.206e-6
0.242, 5.799e-6
0.236, 5.339e-6
0.230, 4.815e-6
0.224, 4.228e-6
0.218, 3.576e-6
0.212, 2.839e-6
0.206, 2.017e-6
0.200, 1.104e-6
0.194, 1.132e-7
0.188, -9.778e-7
0.182, -2.156e-6
0.176, -3.424e-6
0.170, -4.748e-6
0.164, -6.099e-6
0.158, -7.475e-6
0.152, -8.839e-6
0.146, -1.014e-5
0.140, -1.138e-5
0.134, -1.253e-5
0.128, -1.355e-5
0.122, -1.443e-5
0.116, -1.518e-5
0.110, -1.577e-5
0.104, -1.623e-5
0.098, -1.656e-5
0.092, -1.675e-5
0.086, -1.686e-5
0.080, -1.687e-5
0.074, -1.682e-5
0.068, -1.671e-5
0.062, -1.655e-5
0.056, -1.634e-5
0.050, -1.610e-5
0.044, -1.584e-5
0.038, -1.558e-5
0.032, -1.531e-5
0.026, -1.504e-5
0.020, -1.477e-5
0.014, -1.448e-5
0.008, -1.421e-5
0.002, -1.392e-5
-0.004, -1.366e-5
-0.010, -1.341e-5
-0.016, -1.316e-5
-0.022, -1.291e-5
-0.028, -1.270e-5
-0.034, -1.247e-5
-0.040, -1.225e-5
-0.046, -1.203e-5
-0.052, -1.183e-5
-0.058, -1.163e-5
-0.064, -1.144e-5
-0.070, -1.126e-5
-0.076, -1.108e-5
-0.082, -1.091e-5
-0.088, -1.075e-5
-0.094, -1.058e-5
-0.100, -1.043e-5
-0.106, -1.028e-5
-0.112, -1.014e-5
-0.118, -1.001e-5
-0.124, -9.894e-6
-0.130, -9.768e-6
-0.136, -9.647e-6
-0.142, -9.525e-6
-0.148, -9.417e-6
-0.154, -9.324e-6
-0.160, -9.231e-6
-0.166, -9.139e-6
-0.172, -9.066e-6
-0.178, -8.993e-6
-0.184, -8.917e-6
-0.190, -8.845e-6
-0.196, -8.783e-6
-0.199, -8.771e-6