File: example/FERRO BARE.csv
Sept. 12, 2025   15:54:51
Cyclic Voltammetry
File: d:\serah 3rd year\02-09-25 l-lysine stability\ferro bare.csv
Data Source:  Experiment
Instrument Model:  CHI760D
Header:
Note:

Init E (V) = -0.2
High E (V) = 0.6
Low E (V) = -0.2
Init P/N = P
Scan Rate (V/s) = 0.05
Segment = 2
Sample Interval (V) = 0.001
Quiet Time (sec) = 2
Sensitivity (A/V) = 1e-4

Results:

Channel 1:
Segment 1:

Segment 2:

Potential/V, Current/A

-0.200, -3.536e-7
-0.194, 1.341e-7
-0.188, 2.304e-7
-0.182, 3.045e-7
-0.176, 3.585e-7
-0.170, 4.084e-7
-0.164, 4.513e-7
-0.158, 4.872e-7
-0.152, 5.179e-7
-0.146, 5.366e-7
-0.140, 5.555e-7
-0.134, 5.766e-7
-0.128, 6.002e-7
-0.122, 6.170e-7
-0.116, 6.346e-7
-0.110, 6.499e-7
-0.104, 6.619e-7
-0.098, 6.699e-7
-0.092, 6.831e-7
-0.086, 6.921e-7
-0.080, 7.042e-7
-0.074, 7.171e-7
-0.068, 7.311e-7
-0.062, 7.398e-7
-0.056, 7.549e-7
-0.050, 7.636e-7
-0.044, 7.759e-7
-0.038, 7.885e-7
-0.032, 8.055e-7
-0.026, 8.231e-7
-0.020, 8.446e-7
-0.014, 8.734e-7
-0.008, 9.029e-7
-0.002, 9.337e-7
0.004, 9.783e-7
0.010, 1.028e-6
0.016, 1.094e-6
0.022, 1.178e-6
0.028, 1.280e-6
0.034, 1.406e-6
0.040, 1.549e-6
0.046, 1.731e-6
0.052, 1.969e-6
0.058, 2.244e-6
0.064, 2.597e-6
0.070, 3.037e-6
0.076, 3.581e-6
0.082, 4.237e-6
0.088, 5.034e-6
0.094, 6.004e-6
0.100, 7.172e-6
0.106, 8.599e-6
0.112, 1.026e-5
0.118, 1.218e-5
0.124, 1.443e-5
0.130, 1.697e-5
0.136, 1.975e-5
0.142, 2.280e-5
0.148, 2.608e-5
0.154, 2.953e-5
0.160, 3.300e-5
0.166, 3.644e-5
0.172, 3.970e-5
0.178, 4.268e-5
0.184, 4.530e-5
0.190, 4.742e-5
0.196, 4.901e-5
0.202, 5.005e-5
0.208, 5.052e-5
0.214, 5.045e-5
0.220, 4.995e-5
0.226, 4.907e-5
0.232, 4.794e-5
0.238, 4.662e-5
0.244, 4.522e-5
0.250, 4.379e-5
0.256, 4.237e-5
0.262, 4.099e-5
0.268, 3.969e-5
0.274, 3.845e-5
0.280, 3.728e-5
0.286, 3.620e-5
0.292, 3.520e-5
0.298, 3.428e-5
0.304, 3.342e-5
0.310, 3.263e-5
0.316, 3.190e-5
0.322, 3.123e-5
0.328, 3.059e-5
0.334, 3.000e-5
0.340, 2.946e-5
0.346, 2.895e-5
0.352, 2.848e-5
0.358, 2.803e-5
0.364, 2.762e-5
0.370, 2.723e-5
0.376, 2.686e-5
0.382, 2.652e-5
0.388, 2.618e-5
0.394, 2.588e-5
0.400, 2.559e-5
0.406, 2.532e-5
0.412, 2.506e-5
0.418, 2.481e-5
0.424, 2.458e-5
0.430, 2.436e-5
0.436, 2.414e-5
0.442, 2.394e-5
0.448, 2.374e-5
0.454, 2.356e-5
0.460, 2.339e-5
0.466, 2.322e-5
0.472, 2.306e-5
0.478, 2.291e-5
0.484, 2.275e-5
0.490, 2.262e-5
0.496, 2.249e-5
0.502, 2.236e-5
0.508, 2.224e-5
0.514, 2.213e-5
0.520, 2.201e-5
0.526, 2.190e-5
0.532, 2.179e-5
0.538, 2.170e-5
0.544, 2.161e-5
0.550, 2.152e-5
0.556, 2.144e-5
0.562, 2.135e-5
0.568, 2.127e-5
0.574, 2.119e-5
0.580, 2.112e-5
0.586, 2.104e-5
0.592, 2.098e-5
0.598, 2.092e-5
0.596, 1.962e-5
0.590, 1.906e-5
0.584, 1.866e-5
0.578, 1.833e-5
0.572, 1.806e-5
0.566, 1.781e-5
0.560, 1.759e-5
0.554, 1.739e-5
0.548, 1.721e-5
0.542, 1.704e-5
0.536, 1.688e-5
0.530, 1.674e-5
0.524, 1.660e-5
0.518, 1.647e-5
0.512, 1.634e-5
0.506, 1.622e-5
0.500, 1.610e-5
0.494, 1.599e-5
0.488, 1.589e-5
0.482, 1.579e-5
0.476, 1.569e-5
0.470, 1.560e-5
0.464, 1.550e-5
0.458, 1.541e-5
0.452, 1.532e-5
0.446, 1.523e-5
0.440, 1.514e-5
0.434, 1.506e-5
0.428, 1.498e-5
0.422, 1.490e-5
0.416, 1.482e-5
0.410, 1.474e-5
0.404, 1.466e-5
0.398, 1.458e-5
0.392, 1.451e-5
0.386, 1.443e-5
0.380, 1.436e-5
0.374, 1.428e-5
0.368, 1.420e-5
0.362, 1.411e-5
0.356, 1.402e-5
0.350, 1.393e-5
0.344, 1.384e-5
0.338, 1.374e-5
0.332, 1.363e-5
0.326, 1.350e-5
0.320, 1.337e-5
0.314, 1.321e-5
0.308, 1.302e-5
0.302, 1.282e-5
0.296, 1.257e-5
0.290, 1.228e-5
0.284, 1.194e-5
0.278, 1.152e-5
0.272, 1.102e-5
0.266, 1.042e-5
0.260, 9.687e-6
0.254, 8.806e-6
0.248, 7.770e-6
0.242, 6.531e-6
0.236, 5.049e-6
0.230, 3.296e-6
0.224, 1.278e-6
0.218, -1.039e-6
0.212, -3.642e-6
0.206, -6.547e-6
0.200, -9.668e-6
0.194, -1.302e-5
0.188, -1.650e-5
0.182, -2.004e-5
0.176, -2.350e-5
0.170, -2.684e-5
0.164, -2.986e-5
0.158, -3.246e-5
0.152, -3.462e-5
0.146, -3.616e-5
0.140, -3.714e-5
0.134, -3.759e-5
0.128, -3.748e-5
0.122, -3.693e-5
0.116, -3.604e-5
0.110, -3.485e-5
0.104, -3.351e-5
0.098, -3.209e-5
0.092, -3.062e-5
0.086, -2.918e-5
0.080, -2.779e-5
0.074, -2.646e-5
0.068, -2.522e-5
0.062, -2.405e-5
0.056, -2.296e-5
0.050, -2.196e-5
0.044, -2.103e-5
0.038, -2.018e-5
0.032, -1.938e-5
0.026, -1.865e-5
0.020, -1.798e-5
0.014, -1.735e-5
0.008, -1.676e-5
0.002, -1.622e-5
-0.004, -1.571e-5
-0.010, -1.523e-5
-0.016, -1.479e-5
-0.022, -1.437e-5
-0.028, -1.398e-5
-0.034, -1.362e-5
-0.040, -1.327e-5
-0.046, -1.293e-5
-0.052, -1.262e-5
-0.058, -1.232e-5
-0.064, -1.204e-5
-0.070, -1.177e-5
-0.076, -1.152e-5
-0.082, -1.128e-5
-0.088, -1.105e-5
-0.094, -1.082e-5
-0.100, -1.060e-5
-0.106, -1.041e-5
-0.112, -1.021e-5
-0.118, -1.003e-5
-0.124, -9.853e-6
-0.130, -9.687e-6
-0.136, -9.528e-6
-0.142, -9.370e-6
-0.148, -9.222e-6
-0.154, -9.084e-6
-0.160, -8.949e-6
-0.166, -8.821e-6
-0.172, -8.708e-6
-0.178, -8.596e-6
-0.184, -8.494e-6
-0.190, -8.384e-6
-0.196, -8.294e-6
-0.199, -8.251e-6