File: example/FERRO MOD 9 0.0 to 1.7.csv
July 1, 2025   13:51:56
Cyclic Voltammetry
File: d:\serah 3rd year\02-09-25 l-lysine stability\ferro mod 9 cyclesre.csv
Data Source:  Experiment
Instrument Model:  CHI760D
Header:
Note:

Init E (V) = -0.2
High E (V) = 0.6
Low E (V) = -0.2
Init P/N = P
Scan Rate (V/s) = 0.05
Segment = 2
Sample Interval (V) = 0.001
Quiet Time (sec) = 2
Sensitivity (A/V) = 1e-4

Results:

Channel 1:
Segment 1:

Segment 2:

Potential/V, Current/A

-0.200, -1.136e-6
-0.194, 5.429e-7
-0.188, 8.681e-7
-0.182, 1.090e-6
-0.176, 1.269e-6
-0.170, 1.424e-6
-0.164, 1.546e-6
-0.158, 1.651e-6
-0.152, 1.740e-6
-0.146, 1.796e-6
-0.140, 1.849e-6
-0.134, 1.919e-6
-0.128, 1.962e-6
-0.122, 1.999e-6
-0.116, 2.048e-6
-0.110, 2.080e-6
-0.104, 2.102e-6
-0.098, 2.106e-6
-0.092, 2.133e-6
-0.086, 2.148e-6
-0.080, 2.163e-6
-0.074, 2.182e-6
-0.068, 2.206e-6
-0.062, 2.214e-6
-0.056, 2.217e-6
-0.050, 2.223e-6
-0.044, 2.229e-6
-0.038, 2.229e-6
-0.032, 2.240e-6
-0.026, 2.244e-6
-0.020, 2.252e-6
-0.014, 2.272e-6
-0.008, 2.270e-6
-0.002, 2.266e-6
0.004, 2.281e-6
0.010, 2.281e-6
0.016, 2.291e-6
0.022, 2.315e-6
0.028, 2.333e-6
0.034, 2.346e-6
0.040, 2.354e-6
0.046, 2.370e-6
0.052, 2.403e-6
0.058, 2.420e-6
0.064, 2.447e-6
0.070, 2.485e-6
0.076, 2.530e-6
0.082, 2.579e-6
0.088, 2.627e-6
0.094, 2.668e-6
0.100, 2.736e-6
0.106, 2.816e-6
0.112, 2.909e-6
0.118, 3.002e-6
0.124, 3.114e-6
0.130, 3.226e-6
0.136, 3.351e-6
0.142, 3.468e-6
0.148, 3.609e-6
0.154, 3.754e-6
0.160, 3.898e-6
0.166, 4.041e-6
0.172, 4.188e-6
0.178, 4.336e-6
0.184, 4.470e-6
0.190, 4.594e-6
0.196, 4.721e-6
0.202, 4.860e-6
0.208, 4.980e-6
0.214, 5.101e-6
0.220, 5.225e-6
0.226, 5.348e-6
0.232, 5.449e-6
0.238, 5.551e-6
0.244, 5.657e-6
0.250, 5.765e-6
0.256, 5.891e-6
0.262, 5.986e-6
0.268, 6.098e-6
0.274, 6.203e-6
0.280, 6.304e-6
0.286, 6.404e-6
0.292, 6.504e-6
0.298, 6.610e-6
0.304, 6.717e-6
0.310, 6.835e-6
0.316, 6.947e-6
0.322, 7.055e-6
0.328, 7.154e-6
0.334, 7.266e-6
0.340, 7.365e-6
0.346, 7.485e-6
0.352, 7.595e-6
0.358, 7.707e-6
0.364, 7.826e-6
0.370, 7.947e-6
0.376, 8.049e-6
0.382, 8.152e-6
0.388, 8.267e-6
0.394, 8.382e-6
0.400, 8.501e-6
0.406, 8.616e-6
0.412, 8.751e-6
0.418, 8.875e-6
0.424, 8.981e-6
0.430, 9.090e-6
0.436, 9.210e-6
0.442, 9.336e-6
0.448, 9.457e-6
0.454, 9.580e-6
0.460, 9.713e-6
0.466, 9.843e-6
0.472, 9.968e-6
0.478, 1.008e-5
0.484, 1.021e-5
0.490, 1.034e-5
0.496, 1.048e-5
0.502, 1.061e-5
0.508, 1.075e-5
0.514, 1.089e-5
0.520, 1.102e-5
0.526, 1.115e-5
0.532, 1.129e-5
0.538, 1.144e-5
0.544, 1.158e-5
0.550, 1.173e-5
0.556, 1.188e-5
0.562, 1.202e-5
0.568, 1.218e-5
0.574, 1.232e-5
0.580, 1.247e-5
0.586, 1.263e-5
0.592, 1.280e-5
0.598, 1.296e-5
0.596, 1.040e-5
0.590, 9.647e-6
0.584, 9.136e-6
0.578, 8.754e-6
0.572, 8.425e-6
0.566, 8.143e-6
0.560, 7.897e-6
0.554, 7.668e-6
0.548, 7.460e-6
0.542, 7.265e-6
0.536, 7.085e-6
0.530, 6.933e-6
0.524, 6.786e-6
0.518, 6.628e-6
0.512, 6.466e-6
0.506, 6.348e-6
0.500, 6.204e-6
0.494, 6.081e-6
0.488, 5.951e-6
0.482, 5.845e-6
0.476, 5.724e-6
0.470, 5.611e-6
0.464, 5.494e-6
0.458, 5.375e-6
0.452, 5.252e-6
0.446, 5.145e-6
0.440, 5.039e-6
0.434, 4.942e-6
0.428, 4.841e-6
0.422, 4.741e-6
0.416, 4.633e-6
0.410, 4.521e-6
0.404, 4.416e-6
0.398, 4.314e-6
0.392, 4.218e-6
0.386, 4.125e-6
0.380, 4.030e-6
0.374, 3.935e-6
0.368, 3.838e-6
0.362, 3.736e-6
0.356, 3.631e-6
0.350, 3.534e-6
0.344, 3.441e-6
0.338, 3.353e-6
0.332, 3.256e-6
0.326, 3.170e-6
0.320, 3.075e-6
0.314, 2.977e-6
0.308, 2.882e-6
0.302, 2.781e-6
0.296, 2.692e-6
0.290, 2.604e-6
0.284, 2.512e-6
0.278, 2.420e-6
0.272, 2.317e-6
0.266, 2.217e-6
0.260, 2.124e-6
0.254, 2.002e-6
0.248, 1.909e-6
0.242, 1.811e-6
0.236, 1.697e-6
0.230, 1.583e-6
0.224, 1.458e-6
0.218, 1.329e-6
0.212, 1.194e-6
0.206, 1.055e-6
0.200, 9.086e-7
0.194, 7.706e-7
0.188, 6.048e-7
0.182, 4.400e-7
0.176, 2.491e-7
0.170, 5.788e-8
0.164, -1.439e-7
0.158, -3.516e-7
0.152, -5.560e-7
0.146, -7.415e-7
0.140, -9.402e-7
0.134, -1.136e-6
0.128, -1.337e-6
0.122, -1.505e-6
0.116, -1.667e-6
0.110, -1.825e-6
0.104, -1.962e-6
0.098, -2.074e-6
0.092, -2.182e-6
0.086, -2.278e-6
0.080, -2.380e-6
0.074, -2.459e-6
0.068, -2.540e-6
0.062, -2.620e-6
0.056, -2.667e-6
0.050, -2.727e-6
0.044, -2.777e-6
0.038, -2.823e-6
0.032, -2.886e-6
0.026, -2.928e-6
0.020, -2.992e-6
0.014, -3.032e-6
0.008, -3.082e-6
0.002, -3.106e-6
-0.004, -3.150e-6
-0.010, -3.198e-6
-0.016, -3.244e-6
-0.022, -3.304e-6
-0.028, -3.355e-6
-0.034, -3.403e-6
-0.040, -3.449e-6
-0.046, -3.486e-6
-0.052, -3.547e-6
-0.058, -3.591e-6
-0.064, -3.638e-6
-0.070, -3.694e-6
-0.076, -3.754e-6
-0.082, -3.817e-6
-0.088, -3.871e-6
-0.094, -3.921e-6
-0.100, -3.974e-6
-0.106, -4.052e-6
-0.112, -4.121e-6
-0.118, -4.187e-6
-0.124, -4.280e-6
-0.130, -4.360e-6
-0.136, -4.445e-6
-0.142, -4.516e-6
-0.148, -4.613e-6
-0.154, -4.722e-6
-0.160, -4.820e-6
-0.166, -4.936e-6
-0.172, -5.071e-6
-0.178, -5.203e-6
-0.184, -5.348e-6
-0.190, -5.494e-6
-0.196, -5.649e-6
-0.199, -5.741e-6