File: example/MOD FERRO CV -1 to 1.7 V.csv
Apr. 16, 2025   17:05:51
Cyclic Voltammetry
File: d:\serah 2nd year\16-04-25 l-arg -1 to 1.7 conc\l-arg 10mm\mod ferro cv.csv
Data Source:  Experiment
Instrument Model:  CHI760D
Header:
Note:

Init E (V) = -0.2
High E (V) = 0.6
Low E (V) = -0.2
Init P/N = P
Scan Rate (V/s) = 0.05
Segment = 2
Sample Interval (V) = 0.001
Quiet Time (sec) = 2
Sensitivity (A/V) = 1e-4

Results:

Channel 1:
Segment 1:

Segment 2:

Potential/V, Current/A

-0.200, -8.057e-6
-0.194, -6.231e-6
-0.188, -5.872e-6
-0.182, -5.603e-6
-0.176, -5.363e-6
-0.170, -5.143e-6
-0.164, -4.950e-6
-0.158, -4.766e-6
-0.152, -4.629e-6
-0.146, -4.501e-6
-0.140, -4.374e-6
-0.134, -4.233e-6
-0.128, -4.109e-6
-0.122, -4.011e-6
-0.116, -3.876e-6
-0.110, -3.776e-6
-0.104, -3.686e-6
-0.098, -3.612e-6
-0.092, -3.528e-6
-0.086, -3.441e-6
-0.080, -3.353e-6
-0.074, -3.256e-6
-0.068, -3.169e-6
-0.062, -3.089e-6
-0.056, -3.039e-6
-0.050, -2.963e-6
-0.044, -2.907e-6
-0.038, -2.853e-6
-0.032, -2.783e-6
-0.026, -2.698e-6
-0.020, -2.641e-6
-0.014, -2.579e-6
-0.008, -2.538e-6
-0.002, -2.492e-6
0.004, -2.426e-6
0.010, -2.365e-6
0.016, -2.303e-6
0.022, -2.216e-6
0.028, -2.144e-6
0.034, -2.073e-6
0.040, -1.986e-6
0.046, -1.881e-6
0.052, -1.747e-6
0.058, -1.607e-6
0.064, -1.419e-6
0.070, -1.202e-6
0.076, -9.224e-7
0.082, -5.836e-7
0.088, -1.945e-7
0.094, 2.945e-7
0.100, 9.085e-7
0.106, 1.666e-6
0.112, 2.571e-6
0.118, 3.676e-6
0.124, 4.997e-6
0.130, 6.541e-6
0.136, 8.327e-6
0.142, 1.040e-5
0.148, 1.277e-5
0.154, 1.547e-5
0.160, 1.836e-5
0.166, 2.152e-5
0.172, 2.481e-5
0.178, 2.823e-5
0.184, 3.166e-5
0.190, 3.499e-5
0.196, 3.813e-5
0.202, 4.101e-5
0.208, 4.348e-5
0.214, 4.548e-5
0.220, 4.695e-5
0.226, 4.786e-5
0.232, 4.817e-5
0.238, 4.798e-5
0.244, 4.736e-5
0.250, 4.640e-5
0.256, 4.518e-5
0.262, 4.381e-5
0.268, 4.233e-5
0.274, 4.084e-5
0.280, 3.936e-5
0.286, 3.794e-5
0.292, 3.658e-5
0.298, 3.531e-5
0.304, 3.412e-5
0.310, 3.303e-5
0.316, 3.202e-5
0.322, 3.106e-5
0.328, 3.018e-5
0.334, 2.937e-5
0.340, 2.861e-5
0.346, 2.791e-5
0.352, 2.727e-5
0.358, 2.666e-5
0.364, 2.610e-5
0.370, 2.558e-5
0.376, 2.508e-5
0.382, 2.460e-5
0.388, 2.416e-5
0.394, 2.375e-5
0.400, 2.337e-5
0.406, 2.300e-5
0.412, 2.265e-5
0.418, 2.233e-5
0.424, 2.201e-5
0.430, 2.170e-5
0.436, 2.142e-5
0.442, 2.116e-5
0.448, 2.089e-5
0.454, 2.066e-5
0.460, 2.044e-5
0.466, 2.022e-5
0.472, 2.001e-5
0.478, 1.980e-5
0.484, 1.961e-5
0.490, 1.945e-5
0.496, 1.929e-5
0.502, 1.914e-5
0.508, 1.901e-5
0.514, 1.888e-5
0.520, 1.875e-5
0.526, 1.864e-5
0.532, 1.854e-5
0.538, 1.846e-5
0.544, 1.837e-5
0.550, 1.830e-5
0.556, 1.824e-5
0.562, 1.818e-5
0.568, 1.812e-5
0.574, 1.807e-5
0.580, 1.802e-5
0.586, 1.798e-5
0.592, 1.795e-5
0.598, 1.792e-5
0.596, 1.577e-5
0.590, 1.537e-5
0.584, 1.507e-5
0.578, 1.483e-5
0.572, 1.461e-5
0.566, 1.441e-5
0.560, 1.422e-5
0.554, 1.404e-5
0.548, 1.387e-5
0.542, 1.370e-5
0.536, 1.356e-5
0.530, 1.343e-5
0.524, 1.330e-5
0.518, 1.317e-5
0.512, 1.302e-5
0.506, 1.292e-5
0.500, 1.281e-5
0.494, 1.270e-5
0.488, 1.260e-5
0.482, 1.252e-5
0.476, 1.243e-5
0.470, 1.234e-5
0.464, 1.224e-5
0.458, 1.215e-5
0.452, 1.206e-5
0.446, 1.198e-5
0.440, 1.191e-5
0.434, 1.183e-5
0.428, 1.175e-5
0.422, 1.168e-5
0.416, 1.160e-5
0.410, 1.151e-5
0.404, 1.143e-5
0.398, 1.135e-5
0.392, 1.127e-5
0.386, 1.119e-5
0.380, 1.111e-5
0.374, 1.102e-5
0.368, 1.093e-5
0.362, 1.083e-5
0.356, 1.071e-5
0.350, 1.059e-5
0.344, 1.047e-5
0.338, 1.034e-5
0.332, 1.017e-5
0.326, 9.988e-6
0.320, 9.773e-6
0.314, 9.513e-6
0.308, 9.208e-6
0.302, 8.852e-6
0.296, 8.424e-6
0.290, 7.930e-6
0.284, 7.312e-6
0.278, 6.579e-6
0.272, 5.679e-6
0.266, 4.623e-6
0.260, 3.349e-6
0.254, 1.835e-6
0.248, 1.219e-7
0.242, -1.869e-6
0.236, -4.181e-6
0.230, -6.766e-6
0.224, -9.620e-6
0.218, -1.269e-5
0.212, -1.599e-5
0.206, -1.941e-5
0.200, -2.284e-5
0.194, -2.626e-5
0.188, -2.951e-5
0.182, -3.256e-5
0.176, -3.525e-5
0.170, -3.747e-5
0.164, -3.920e-5
0.158, -4.033e-5
0.152, -4.093e-5
0.146, -4.092e-5
0.140, -4.048e-5
0.134, -3.968e-5
0.128, -3.857e-5
0.122, -3.728e-5
0.116, -3.586e-5
0.110, -3.439e-5
0.104, -3.292e-5
0.098, -3.150e-5
0.092, -3.016e-5
0.086, -2.888e-5
0.080, -2.770e-5
0.074, -2.661e-5
0.068, -2.560e-5
0.062, -2.467e-5
0.056, -2.379e-5
0.050, -2.299e-5
0.044, -2.226e-5
0.038, -2.157e-5
0.032, -2.096e-5
0.026, -2.037e-5
0.020, -1.985e-5
0.014, -1.935e-5
0.008, -1.887e-5
0.002, -1.842e-5
-0.004, -1.802e-5
-0.010, -1.763e-5
-0.016, -1.728e-5
-0.022, -1.694e-5
-0.028, -1.663e-5
-0.034, -1.634e-5
-0.040, -1.604e-5
-0.046, -1.575e-5
-0.052, -1.550e-5
-0.058, -1.524e-5
-0.064, -1.500e-5
-0.070, -1.479e-5
-0.076, -1.458e-5
-0.082, -1.438e-5
-0.088, -1.417e-5
-0.094, -1.397e-5
-0.100, -1.378e-5
-0.106, -1.361e-5
-0.112, -1.345e-5
-0.118, -1.330e-5
-0.124, -1.315e-5
-0.130, -1.302e-5
-0.136, -1.286e-5
-0.142, -1.272e-5
-0.148, -1.261e-5
-0.154, -1.252e-5
-0.160, -1.241e-5
-0.166, -1.233e-5
-0.172, -1.227e-5
-0.178, -1.222e-5
-0.184, -1.218e-5
-0.190, -1.214e-5
-0.196, -1.214e-5
-0.199, -1.216e-5